SpectraSuite Datei
++++++++++++++++++++++++++++++++++++
Datum: Mon Jan 12 04:47:17 CET 2004
Benutzer: Student
Dark-Spektrum vorhanden: Nein
Referenz-Spektrum vorhanden: Nein
Zahl der probierten Teilspektren: 1
Spektrometer: USB2+H04734
Integrationszeit (usec): 500000 (USB2+H04734)
Spektren Durchschnitt berechnet: 2 (USB2+H04734)
Boxcar Glättung: 0 (USB2+H04734)
Dunkelstromkorrektur: Nein (USB2+H04734)
Puls/Lampe aktiviert: Nein (USB2+H04734)
Correct for Detector Non-linearity: Nein (USB2+H04734)
Streulichtkorrektur: Nein (USB2+H04734)
Anzahl Pixel in verarbeitetem Spektrum: 2048
>>>>>Begin Processed Spectral Data<<<<<
418,45	1294,88
418,57	1294,88
418,69	1294,88
418,80	1201,10
418,92	1178,50
419,04	1273,41
419,16	1180,76
419,28	1189,80
419,40	1239,52
419,52	1211,27
419,64	1175,11
419,75	1167,20
419,87	1167,20
419,99	1183,02
420,11	1240,65
420,23	1207,88
420,35	1291,49
420,47	1228,22
420,58	1262,11
420,70	1256,46
420,82	1292,62
420,94	1310,70
421,06	1285,84
421,18	1286,97
421,29	1373,98
421,41	1557,02
421,53	1607,87
421,65	1636,12
421,77	1637,25
421,89	1650,80
422,00	1615,78
422,12	1589,79
422,24	1681,31
422,36	1670,01
422,48	1644,02
422,59	1665,49
422,71	1681,31
422,83	1659,84
422,95	1633,86
423,07	1668,88
423,18	1701,65
423,30	1710,69
423,42	1648,54
423,54	1718,60
423,66	1682,44
423,77	1699,39
423,89	1662,10
424,01	1612,39
424,13	1662,10
424,25	1708,43
424,36	1671,14
424,48	1666,62
424,60	1711,82
424,72	1707,30
424,84	1673,40
424,95	1738,94
425,07	1650,80
425,19	1663,23
425,31	1710,69
425,42	1659,84
425,54	1712,95
425,66	1702,78
425,78	1709,56
425,89	1697,13
426,01	1715,21
426,13	1732,16
426,25	1766,06
426,36	1694,87
426,48	1658,71
426,60	1700,52
426,72	1668,88
426,83	1684,70
426,95	1657,58
427,07	1673,40
427,19	1760,41
427,30	1697,13
427,42	1625,95
427,54	1670,01
427,66	1754,76
427,77	1709,56
427,89	1724,25
428,01	1731,03
428,12	1724,25
428,24	1676,79
428,36	1737,81
428,48	1720,86
428,59	1701,65
428,71	1760,41
428,83	1736,68
428,94	1799,95
429,06	1753,63
429,18	1764,93
429,30	1738,94
429,41	1727,64
429,53	1784,13
429,65	1779,61
429,76	1789,78
429,88	1744,59
430,00	1700,52
430,11	1804,47
430,23	1711,82
430,35	1792,04
430,47	1729,90
430,58	1743,46
430,70	1731,03
430,82	1776,22
430,93	1842,89
431,05	1747,98
431,17	1794,30
431,28	1769,45
431,40	1731,03
431,52	1788,65
431,63	1764,93
431,75	1727,64
431,87	1806,73
431,98	1762,67
432,10	1716,34
432,22	1724,25
432,33	1797,69
432,45	1772,83
432,56	1821,42
432,68	1789,78
432,80	1811,25
432,91	1745,72
433,03	1775,09
433,15	1849,67
433,26	1799,95
433,38	1762,67
433,50	1776,22
433,61	1820,29
433,73	1853,06
433,84	1829,33
433,96	1779,61
434,08	1746,85
434,19	1758,15
434,31	1798,82
434,43	1845,15
434,54	1754,76
434,66	1706,17
434,77	1796,56
434,89	1813,51
435,01	1805,60
435,12	1802,21
435,24	1832,72
435,35	1779,61
435,47	1850,80
435,59	1786,39
435,70	1762,67
435,82	1760,41
435,93	1785,26
436,05	1821,42
436,17	1793,17
436,28	1807,86
436,40	1846,28
436,51	1769,45
436,63	1829,33
436,74	1846,28
436,86	1874,53
436,98	1964,92
437,09	1757,02
437,21	1812,38
437,32	1807,86
437,44	1858,71
437,55	1840,63
437,67	1984,13
437,79	1863,23
437,90	1853,06
438,02	1818,03
438,13	2223,67
438,25	1837,24
438,36	1893,74
438,48	1841,76
438,59	1874,53
438,71	1822,55
438,83	1850,80
438,94	1864,36
439,06	1844,02
439,17	1863,23
439,29	1830,46
439,40	1827,07
439,52	1806,73
439,63	1860,97
439,75	1808,99
439,86	1873,40
439,98	1819,16
440,09	1840,63
440,21	1858,71
440,32	1851,93
440,44	1758,15
440,55	1793,17
440,67	1885,83
440,78	1854,19
440,90	1825,94
441,01	1876,79
441,13	1855,32
441,24	1890,35
441,36	1820,29
441,47	1846,28
441,59	1898,26
441,70	1818,03
441,82	1926,50
441,93	1924,24
442,05	1836,11
442,16	1860,97
442,28	1856,45
442,39	1844,02
442,51	1929,89
442,62	1858,71
442,74	1903,90
442,85	1874,53
442,97	1910,68
443,08	1871,14
443,20	1872,27
443,31	1947,97
443,43	1941,19
443,54	1928,76
443,66	1870,01
443,77	1911,81
443,88	1888,09
444,00	1910,68
444,11	1928,76
444,23	1971,70
444,34	1888,09
444,46	1889,22
444,57	1941,19
444,69	1988,65
444,80	1960,40
444,91	1985,26
445,03	1927,63
445,14	1944,58
445,26	1917,46
445,37	1896,00
445,49	1910,68
445,60	2007,86
445,71	2047,40
445,83	1949,10
445,94	1937,80
446,06	2024,81
446,17	1944,58
446,29	1978,48
446,40	1986,39
446,51	2023,68
446,63	1970,57
446,74	1978,48
446,86	1975,09
446,97	1964,92
447,08	1978,48
447,20	2031,58
447,31	1966,05
447,43	1986,39
447,54	1979,61
447,65	2121,98
447,77	2037,23
447,88	1980,74
448,00	1998,82
448,11	2015,77
448,22	2033,84
448,34	2095,99
448,45	2033,84
448,56	2059,83
448,68	2053,05
448,79	2108,42
448,90	2059,83
449,02	2024,81
449,13	2073,39
449,25	2115,20
449,36	2076,78
449,47	2042,88
449,59	2100,51
449,70	2056,44
449,81	2099,38
449,93	2121,98
450,04	2110,68
450,15	2079,04
450,27	2128,76
450,38	2072,26
450,49	2058,70
450,61	2141,19
450,72	2089,21
450,83	2147,97
450,95	2128,76
451,06	2151,36
451,17	2202,20
451,29	2141,19
451,40	2141,19
451,51	2132,15
451,63	2150,23
451,74	2142,32
451,85	2166,04
451,97	2194,29
452,08	2144,58
452,19	2178,47
452,31	2211,24
452,42	2244,01
452,53	2306,15
452,65	2218,02
452,76	2170,56
452,87	2204,46
452,98	2186,38
453,10	2232,71
453,21	2233,84
453,32	2186,38
453,44	2241,75
453,55	2192,03
453,66	2324,23
453,77	2281,30
453,89	2251,92
454,00	2284,69
454,11	2323,10
454,23	2214,63
454,34	2292,60
454,45	2182,99
454,56	2305,02
454,68	2302,76
454,79	2325,36
454,90	2338,92
455,01	2275,65
455,13	2305,02
455,24	2337,79
455,35	2354,74
455,46	2316,32
455,58	2351,35
455,69	2327,62
455,80	2329,88
455,91	2336,66
456,03	2344,57
456,14	2397,68
456,25	2350,22
456,36	2368,30
456,48	2405,59
456,59	2402,20
456,70	2372,82
456,81	2431,57
456,92	2421,41
457,04	2370,56
457,15	2421,41
457,26	2344,57
457,37	2389,77
457,49	2403,33
457,60	2376,21
457,71	2445,13
457,82	2492,59
457,93	2432,70
458,05	2438,35
458,16	2385,25
458,27	2457,56
458,38	2472,25
458,49	2502,76
458,61	2471,12
458,72	2445,13
458,83	2450,78
458,94	2505,02
459,05	2453,04
459,17	2560,38
459,28	2427,05
459,39	2471,12
459,50	2509,54
459,61	2500,50
459,72	2517,45
459,84	2521,97
459,95	2485,81
460,06	2592,02
460,17	2501,63
460,28	2549,09
460,39	2505,02
460,51	2569,42
460,62	2514,06
460,73	2566,03
460,84	2547,96
460,95	2561,51
461,06	2562,64
461,18	2577,33
461,29	2572,81
461,40	2555,86
461,51	2571,68
461,62	2582,98
461,73	2514,06
461,84	2575,07
461,96	2605,58
462,07	2649,65
462,18	2592,02
462,29	2625,92
462,40	2667,73
462,51	2604,45
462,62	2638,35
462,73	2681,29
462,85	2686,94
462,96	2640,61
463,07	2674,51
463,18	2745,69
463,29	2664,34
463,40	2715,18
463,51	2642,87
463,62	2576,20
463,73	2732,13
463,85	2673,38
463,96	2675,64
464,07	2683,55
464,18	2608,97
464,29	2629,31
464,40	2709,53
464,51	2647,39
464,62	2719,70
464,73	2689,19
464,84	2683,55
464,95	2735,52
465,06	2788,63
465,18	2746,82
465,29	2669,99
465,40	2752,47
465,51	2736,65
465,62	2676,77
465,73	2691,45
465,84	2756,99
465,95	2738,91
466,06	2764,90
466,17	2787,50
466,28	2790,89
466,39	2786,37
466,50	2795,41
466,61	2682,42
466,72	2824,78
466,83	2742,30
466,95	2776,20
467,06	2815,75
467,17	2740,04
467,28	2795,41
467,39	2815,75
467,50	2855,29
467,61	2743,43
467,72	2749,08
467,83	2830,43
467,94	2869,98
468,05	2831,56
468,16	2799,93
468,27	2868,85
468,38	2793,15
468,49	2815,75
468,60	2806,71
468,71	2906,14
468,82	2932,13
468,93	2892,58
469,04	2925,35
469,15	2895,97
469,26	2903,88
469,37	2916,31
469,48	2891,45
469,59	2867,72
469,70	2883,54
469,81	2856,42
469,92	2862,07
470,03	2970,54
470,14	2959,24
470,25	2982,97
470,36	2980,71
470,47	2902,75
470,58	2898,23
470,69	2994,27
470,80	2893,71
470,91	2924,22
471,02	2921,96
471,13	2868,85
471,24	3049,64
471,35	2997,66
471,46	3049,64
471,56	3029,30
471,67	2999,92
471,78	3053,03
471,89	3012,35
472,00	2956,98
472,11	2992,01
472,22	3015,74
472,33	3124,21
472,44	3083,53
472,55	3010,09
472,66	3076,76
472,77	2996,53
472,88	3175,06
472,99	3134,38
473,10	3045,12
473,21	3098,22
473,32	3190,88
473,42	3105,00
473,53	2994,27
473,64	3141,16
473,75	3158,11
473,86	3102,74
473,97	3060,94
474,08	3121,95
474,19	3184,10
474,30	3192,01
474,41	3173,93
474,52	3153,59
474,62	3064,33
474,73	3172,80
474,84	3213,47
474,95	3242,85
475,06	3196,53
475,17	3138,90
475,28	3152,46
475,39	3118,56
475,50	3173,93
475,60	3138,90
475,71	3206,70
475,82	3152,46
475,93	3201,05
476,04	3196,53
476,15	3171,67
476,26	3194,27
476,37	3214,60
476,47	3166,02
476,58	3250,76
476,69	3221,38
476,80	3152,46
476,91	3220,25
477,02	3212,34
477,13	3276,75
477,23	3275,62
477,34	3288,05
477,45	3256,41
477,56	3254,15
477,67	3315,17
477,78	3352,45
477,89	3300,48
477,99	3246,24
478,10	3387,48
478,21	3316,30
478,32	3317,43
478,43	3308,39
478,54	3345,67
478,64	3362,62
478,75	3378,44
478,86	3350,19
478,97	3340,03
479,08	3333,25
479,18	3333,25
479,29	3361,49
479,40	3361,49
479,51	3414,60
479,62	3343,41
479,72	3335,51
479,83	3336,64
479,94	3373,92
480,05	3406,69
480,16	3447,37
480,26	3431,55
480,37	3413,47
480,48	3446,24
480,59	3467,71
480,70	3448,50
480,80	3432,68
480,91	3465,45
481,02	3417,99
481,13	3506,12
481,24	3509,51
481,34	3486,91
481,45	3479,00
481,56	3447,37
481,67	3516,29
481,77	3498,21
481,88	3508,38
481,99	3524,20
482,10	3595,39
482,20	3504,99
482,31	3520,81
482,42	3463,19
482,53	3484,65
482,63	3566,01
482,74	3542,28
482,85	3577,31
482,96	3492,56
483,06	3525,33
483,17	3592,00
483,28	3624,76
483,39	3538,89
483,49	3596,52
483,60	3550,19
483,71	3615,72
483,81	3588,61
483,92	3622,50
484,03	3648,49
484,14	3573,92
484,24	3581,83
484,35	3683,52
484,46	3655,27
484,57	3595,39
484,67	3668,83
484,78	3603,30
484,89	3707,25
484,99	3640,58
485,10	3676,74
485,21	3688,04
485,31	3706,12
485,42	3675,61
485,53	3607,81
485,63	3740,01
485,74	3668,83
485,85	3752,44
485,96	4048,48
486,06	3694,82
486,17	3727,59
486,28	3735,50
486,38	3737,75
486,49	3742,27
486,60	3672,22
486,70	3697,08
486,81	3717,42
486,92	3786,34
487,02	3784,08
487,13	3746,79
487,24	3837,19
487,34	3704,99
487,45	3830,41
487,56	3754,70
487,66	3794,25
487,77	3762,61
487,87	3707,25
487,98	3730,98
488,09	3812,33
488,19	3746,79
488,30	3869,95
488,41	3758,09
488,51	3829,28
488,62	3780,69
488,73	3819,11
488,83	3838,32
488,94	3772,78
489,04	3900,46
489,15	3785,21
489,26	3840,58
489,36	3936,62
489,47	3801,03
489,58	3743,40
489,68	3865,44
489,79	3860,92
489,89	3877,86
490,00	3859,79
490,11	3848,49
490,21	3909,50
490,32	3899,33
490,42	3827,02
490,53	3867,69
490,64	3855,27
490,74	3869,95
490,85	3933,23
490,95	3881,25
491,06	3885,77
491,16	3889,16
491,27	3868,82
491,38	3923,06
491,48	3969,39
491,59	3978,43
491,69	3937,75
491,80	3841,71
491,90	4017,97
492,01	3881,25
492,12	3971,65
492,22	4011,19
492,33	3900,46
492,43	3955,83
492,54	3964,87
492,64	3843,97
492,75	4028,14
492,86	3962,61
492,96	3872,21
493,07	3915,15
493,17	3955,83
493,28	3926,45
493,38	4016,84
493,49	3954,70
493,59	4042,83
493,70	3964,87
493,80	4004,41
493,91	3953,57
494,01	3954,70
494,12	3890,29
494,22	3944,53
494,33	4041,70
494,43	3958,09
494,54	4072,21
494,64	4005,54
494,75	3985,21
494,86	3975,04
494,96	3924,19
495,07	3951,31
495,17	4001,02
495,28	4005,54
495,38	3970,52
495,49	3989,73
495,59	3963,74
495,69	4032,66
495,80	4003,28
495,90	3999,89
496,01	3998,76
496,11	4006,67
496,22	3990,86
496,32	3998,76
496,43	4076,73
496,53	3981,82
496,64	3941,14
496,74	4075,60
496,85	4065,43
496,95	4012,32
497,06	4055,26
497,16	4103,85
497,27	3985,21
497,37	4060,91
497,48	4023,62
497,58	4031,53
497,68	3990,86
497,79	4036,05
497,89	3969,39
498,00	4023,62
498,10	4033,79
498,21	4021,36
498,31	4041,70
498,42	4095,94
498,52	3982,95
498,62	4028,14
498,73	4075,60
498,83	4055,26
498,94	3981,82
499,04	4076,73
499,15	3995,38
499,25	4016,84
499,35	4184,07
499,46	4050,74
499,56	4111,76
499,67	4092,55
499,77	4032,66
499,87	4112,89
499,98	4091,42
500,08	4019,10
500,19	4033,79
500,29	4037,18
500,39	4168,25
500,50	4222,49
500,60	4097,07
500,71	4158,08
500,81	4116,28
500,91	4165,99
501,02	4134,35
501,12	4134,35
501,22	4073,34
501,33	4161,47
501,43	4179,55
501,54	4124,19
501,64	4153,56
501,74	4180,68
501,85	4286,89
501,95	4222,49
502,05	4231,53
502,16	4285,76
502,26	4342,26
502,37	4327,57
502,47	4301,58
502,57	4238,31
502,68	4239,44
502,78	4370,51
502,88	4314,01
502,99	4337,74
503,09	4298,19
503,19	4432,65
503,30	4382,94
503,40	4385,20
503,50	4369,38
503,61	4427,00
503,71	4362,60
503,81	4460,90
503,92	4391,97
504,02	4495,93
504,12	4500,45
504,23	4458,64
504,33	4512,88
504,43	4506,10
504,54	4494,80
504,64	4555,81
504,74	4706,09
504,84	4561,46
504,95	4639,43
505,05	4597,62
505,15	4641,69
505,26	4567,11
505,36	4555,81
505,46	4608,92
505,56	4689,14
505,67	4658,63
505,77	4730,95
505,87	4704,96
505,98	4649,60
506,08	4694,79
506,18	4750,16
506,28	4840,55
506,39	4769,37
506,49	4885,75
506,59	4794,22
506,70	4758,07
506,80	4898,18
506,90	4912,87
507,00	4828,12
507,11	4874,45
507,21	4937,72
507,31	5051,84
507,41	5011,17
507,52	4958,06
507,62	5039,42
507,72	5125,29
507,82	4964,84
507,93	5058,62
508,03	5100,43
508,13	5106,08
508,23	5093,65
508,34	5110,60
508,44	5100,43
508,54	5115,12
508,64	5147,89
508,74	5170,49
508,85	5168,23
508,95	5289,13
509,05	5191,95
509,15	5225,85
509,26	5317,37
509,36	5316,24
509,46	5347,88
509,56	5313,98
509,66	5387,43
509,77	5389,69
509,87	5436,02
509,97	5354,66
510,07	5455,22
510,17	5449,57
510,28	5560,31
510,38	5417,94
510,48	5422,46
510,58	5567,09
510,68	5597,59
510,78	5532,06
510,89	5591,94
510,99	5560,31
511,09	5641,66
511,19	5629,23
511,29	5555,79
511,39	5668,78
511,50	5641,66
511,60	5650,70
511,70	5665,39
511,80	5780,64
511,90	5690,25
512,00	5723,01
512,11	5662,00
512,21	5764,82
512,31	5590,81
512,41	5728,66
512,51	5867,64
512,61	5856,34
512,71	5846,17
512,82	5889,11
512,92	5866,51
513,02	5933,18
513,12	5890,24
513,22	5945,61
513,32	5918,49
513,42	5932,05
513,53	6050,69
513,63	6171,59
513,73	6284,58
513,83	6151,25
513,93	6151,25
514,03	6213,40
514,13	6215,66
514,23	6186,28
514,33	6203,23
514,44	6189,67
514,54	6210,01
514,64	6404,35
514,74	6413,39
514,84	6367,06
514,94	6499,26
515,04	6507,17
515,14	6492,48
515,24	6422,43
515,34	6379,49
515,44	6399,83
515,55	6306,05
515,65	6390,79
515,75	6328,65
515,85	6368,19
515,95	6484,58
516,05	6452,94
516,15	6499,26
516,25	6603,22
516,35	6572,71
516,45	6584,01
516,55	6542,20
516,65	6565,93
516,75	6473,28
516,85	6469,89
516,95	6476,67
517,05	6529,77
517,16	6619,04
517,26	6808,86
517,36	6690,22
517,46	6824,68
517,56	6945,58
517,66	6738,81
517,76	6858,58
517,86	6747,85
517,96	6638,24
518,06	6485,71
518,16	6580,62
518,26	6546,72
518,36	6691,35
518,46	6747,85
518,56	6884,56
518,66	6959,14
518,76	6934,28
518,86	6951,23
518,96	6989,65
519,06	6843,89
519,16	6895,86
519,26	6885,69
519,36	6826,94
519,46	6822,42
519,56	6789,65
519,66	6994,17
519,76	6932,02
519,86	7059,70
519,96	7154,61
520,06	7302,63
520,16	7365,91
520,26	7284,55
520,36	7284,55
520,46	7223,54
520,56	7217,89
520,66	7006,60
520,76	7026,93
520,86	7116,20
520,96	7096,99
521,06	7020,15
521,16	6993,04
521,26	7294,72
521,35	7276,64
521,45	7334,27
521,55	7414,49
521,65	7508,28
521,75	7508,28
521,85	7509,41
521,95	7395,29
522,05	7378,34
522,15	7213,37
522,25	7237,10
522,35	7025,80
522,45	6932,02
522,55	7234,84
522,65	7259,70
522,75	7313,93
522,85	7389,64
522,94	7475,51
523,04	7543,30
523,14	7652,91
523,24	7881,15
523,34	7788,50
523,44	7657,43
523,54	7625,79
523,64	7467,60
523,74	7593,02
523,84	7307,15
523,94	7302,63
524,03	7416,75
524,13	7441,61
524,23	7529,75
524,33	7648,39
524,43	7748,95
524,53	7887,93
524,63	7778,33
524,73	7908,27
524,83	7776,07
524,92	7907,14
525,02	7974,93
525,12	7833,69
525,22	7695,84
525,32	7689,06
525,42	7590,76
525,52	7581,72
525,61	7450,65
525,71	7545,56
525,81	7675,50
525,91	7844,99
526,01	7791,89
526,11	7903,75
526,21	7964,76
526,30	8116,17
526,40	8129,73
526,50	8189,62
526,60	8179,45
526,70	8237,07
526,80	8066,45
526,89	8075,49
526,99	7846,12
527,09	7854,03
527,19	7737,65
527,29	7689,06
527,39	7726,35
527,48	7787,37
527,58	7969,28
527,68	8084,53
527,78	8179,45
527,88	8316,17
527,97	8320,69
528,07	8333,11
528,17	8498,08
528,27	8351,19
528,37	8321,82
528,46	8399,78
528,56	8276,62
528,66	8121,82
528,76	8145,55
528,86	8066,45
528,95	7926,35
529,05	7944,42
529,15	8085,66
529,25	8096,96
529,35	8205,43
529,44	8226,90
529,54	8379,44
529,64	8484,52
529,74	8545,54
529,83	8500,34
529,93	8515,03
530,03	8710,51
530,13	8617,85
530,22	8820,11
530,32	8785,08
530,42	8690,17
530,52	8666,44
530,61	8631,41
530,71	8458,53
530,81	8417,86
530,91	8414,47
531,00	8469,83
531,10	8443,85
531,20	8521,81
531,30	8606,55
531,39	8528,59
531,49	8771,52
531,59	8712,77
531,69	8761,35
531,78	8856,26
531,88	8895,81
531,98	8931,97
532,07	9079,99
532,17	8884,51
532,27	8933,10
532,37	8886,77
532,46	8672,09
532,56	8565,88
532,66	8509,38
532,75	8405,43
532,85	8388,48
532,95	8380,57
533,04	8603,16
533,14	8536,50
533,24	8825,76
533,34	8812,20
533,43	9035,92
533,53	8963,61
533,63	9050,61
533,72	9044,96
533,82	9101,46
533,92	9127,44
534,01	9172,64
534,11	9103,72
534,21	9094,68
534,30	8876,60
534,40	8703,73
534,50	8483,39
534,59	8628,02
534,69	8414,47
534,79	8617,85
534,88	8726,32
534,98	8729,71
535,08	8881,12
535,17	9094,68
535,27	9108,24
535,36	9115,01
535,46	9171,51
535,56	9243,82
535,65	9240,44
535,75	9211,06
535,85	9115,01
535,94	9235,92
536,04	9312,75
536,14	9257,38
536,23	9305,97
536,33	9152,30
536,42	8971,52
536,52	8924,06
536,62	8890,16
536,71	8773,78
536,81	8765,87
536,90	8676,61
537,00	8924,06
537,10	8934,23
537,19	9065,30
537,29	8970,39
537,38	9035,92
537,48	9205,41
537,58	9087,90
537,67	9146,65
537,77	9145,52
537,86	9294,67
537,96	9482,24
538,06	9264,16
538,15	9399,75
538,25	9531,95
538,34	9509,35
538,44	9249,47
538,53	9131,96
538,63	9109,36
538,73	8961,35
538,82	8682,26
538,92	8616,72
539,01	8761,35
539,11	8648,36
539,20	8791,86
539,30	8865,30
539,39	8901,46
539,49	9009,93
539,59	9015,58
539,68	9248,34
539,78	9291,28
539,87	9206,54
539,97	9598,62
540,06	9452,86
540,16	9653,98
540,25	9625,74
540,35	9738,73
540,44	9520,65
540,54	9551,16
540,63	9429,13
540,73	9238,18
540,82	9136,48
540,92	8938,75
541,01	8689,04
541,11	8689,04
541,20	8568,14
541,30	8778,30
541,39	8776,04
541,49	8968,13
541,58	9103,72
541,68	9321,79
541,77	9326,31
541,87	9383,93
541,96	9490,15
542,06	9602,01
542,15	9605,40
542,25	9768,10
542,34	9696,92
542,44	9605,40
542,53	9805,39
542,63	9785,05
542,72	9702,57
542,82	9534,21
542,91	9296,93
543,01	9124,05
543,10	8989,59
543,20	8950,05
543,29	8878,86
543,38	8767,00
543,48	8779,43
543,57	9041,57
543,67	8969,26
543,76	9259,64
543,86	9432,52
543,95	9420,09
544,05	9518,39
544,14	9559,07
544,23	9695,79
544,33	9712,74
544,42	9848,33
544,52	10048,32
544,61	9887,88
544,71	9890,14
544,80	9852,85
544,89	9817,82
544,99	9765,84
545,08	9694,66
545,18	9372,63
545,27	9256,25
545,36	9162,47
545,46	8959,09
545,55	8991,85
545,65	8916,15
545,74	8756,83
545,84	8916,15
545,93	9015,58
546,02	9256,25
546,12	9533,08
546,21	9535,34
546,30	9630,26
546,40	9742,12
546,49	9768,10
546,59	9909,34
546,68	10005,39
546,77	9974,88
546,87	10092,39
546,96	10030,24
547,05	9787,31
547,15	9873,19
547,24	9739,86
547,34	9612,18
547,43	9715,00
547,52	9684,49
547,62	9657,37
547,71	9774,88
547,80	9538,73
547,90	9359,08
547,99	9477,72
548,08	9292,41
548,18	9346,65
548,27	9309,36
548,36	9378,28
548,46	9542,12
548,55	9684,49
548,64	9896,91
548,74	9917,25
548,83	10012,17
548,92	10217,81
549,02	10133,07
549,11	10239,28
549,20	10162,44
549,30	10057,36
549,39	10077,70
549,48	9873,19
549,58	9875,45
549,67	9907,08
549,76	9877,71
549,85	9920,64
549,95	9895,78
550,04	9911,60
550,13	9940,98
550,23	9942,11
550,32	9731,95
550,41	9700,31
550,50	9554,55
550,60	9511,61
550,69	9485,63
550,78	9611,05
550,88	9750,03
550,97	9695,79
551,06	10059,62
551,15	9896,91
551,25	10225,72
551,34	10204,25
551,43	10270,92
551,52	10374,87
551,62	10273,18
551,71	10270,92
551,80	10328,54
551,89	10304,81
551,99	10152,28
552,08	10134,20
552,17	10107,08
552,26	10182,78
552,36	10147,76
552,45	10330,80
552,54	10347,75
552,63	10625,71
552,73	10673,17
552,82	10746,61
552,91	10417,81
553,00	10565,82
553,10	10398,60
553,19	10405,38
553,28	10267,53
553,37	10206,51
553,46	10267,53
553,56	10530,80
553,65	10531,93
553,74	10597,46
553,83	10534,19
553,92	10620,06
554,02	10848,30
554,11	10730,79
554,20	10548,88
554,29	10724,01
554,38	10427,97
554,48	10455,09
554,57	10321,76
554,66	10265,27
554,75	10394,08
554,84	10407,64
554,94	10446,05
555,03	10673,17
555,12	10719,49
555,21	10796,33
555,30	10833,61
555,39	11016,66
555,49	10875,42
555,58	10651,70
555,67	10676,56
555,76	10440,40
555,85	10333,06
555,94	10348,88
556,03	10284,48
556,13	10224,59
556,22	10205,38
556,31	10472,04
556,40	10669,78
556,49	10816,66
556,58	10815,53
556,67	10902,54
556,77	10829,09
556,86	10953,38
556,95	10809,89
557,04	10724,01
557,13	10639,27
557,22	10675,43
557,31	10504,81
557,40	10682,20
557,50	10613,28
557,59	10888,98
557,68	10981,63
557,77	11109,31
557,86	11260,72
557,95	11223,43
558,04	11213,26
558,13	11378,23
558,22	11112,70
558,31	11292,36
558,41	10924,01
558,50	10868,64
558,59	10868,64
558,68	10560,17
558,77	10677,69
558,86	10586,16
558,95	10583,90
559,04	10965,81
559,13	10973,72
559,22	11021,18
559,31	11201,97
559,40	11125,13
559,49	11153,38
559,59	11240,38
559,68	11021,18
559,77	11129,65
559,86	10949,99
559,95	11060,73
560,04	11212,13
560,13	11162,42
560,22	11324,00
560,31	11415,52
560,40	11599,70
560,49	11562,41
560,58	11601,95
560,67	11896,86
560,76	11711,56
560,85	12013,24
560,94	12154,48
561,03	11965,79
561,12	12097,99
561,21	11699,13
561,30	11677,66
561,39	11486,70
561,48	11385,01
561,57	11242,64
561,66	11255,07
561,75	11277,67
561,84	11077,67
561,93	11300,27
562,02	11484,44
562,11	11495,74
562,20	11472,01
562,29	11429,08
562,38	11318,35
562,47	11232,47
562,56	11009,88
562,65	10925,14
562,74	11024,57
562,83	10983,89
562,92	11082,19
563,01	11135,30
563,10	11318,35
563,19	11409,87
563,28	11747,71
563,37	11747,71
563,46	11943,19
563,55	11765,79
563,64	11833,59
563,73	11972,57
563,82	12137,53
563,91	12162,39
564,00	12025,67
564,09	12050,53
564,18	11894,60
564,27	12070,87
564,35	11653,93
564,44	11561,28
564,53	11799,69
564,62	11529,64
564,71	11477,66
564,80	11502,52
564,89	11664,10
564,98	11477,66
565,07	11620,03
565,16	11287,84
565,25	11409,87
565,34	11222,30
565,43	11096,88
565,51	10937,57
565,60	11076,54
565,69	11204,23
565,78	11517,21
565,87	11496,87
565,96	11553,37
566,05	11745,45
566,14	11925,11
566,23	11961,27
566,32	12174,82
566,40	12134,14
566,49	12069,74
566,58	12081,04
566,67	12214,37
566,76	12344,31
566,85	12420,01
566,94	12562,38
567,03	12651,64
567,11	12386,12
567,20	12425,66
567,29	12330,75
567,38	12076,52
567,47	11809,86
567,56	11860,71
567,65	11798,56
567,73	11786,13
567,82	11711,56
567,91	11736,41
568,00	11612,12
568,09	11605,34
568,18	11635,85
568,27	11504,78
568,35	11325,13
568,44	11442,64
568,53	11320,61
568,62	11391,79
568,71	11634,72
568,80	11766,92
568,88	11857,32
568,97	12085,56
569,06	12038,10
569,15	12065,22
569,24	12119,46
569,32	12196,29
569,41	12101,38
569,50	12210,98
569,59	12325,10
569,68	12347,70
569,76	12380,47
569,85	12627,92
569,94	12681,02
570,03	12683,28
570,12	12792,88
570,20	12722,83
570,29	12542,04
570,38	12604,19
570,47	12467,47
570,56	12398,54
570,64	12200,81
570,73	12169,17
570,82	12123,97
570,91	12017,76
570,99	11938,67
571,08	11670,88
571,17	11809,86
571,26	11667,49
571,34	11399,70
571,43	11570,32
571,52	11591,79
571,61	11600,82
571,69	11747,71
571,78	11841,50
571,87	12114,94
571,96	12029,06
572,04	12142,05
572,13	12243,75
572,22	12079,91
572,31	12302,50
572,39	12453,91
572,48	12309,28
572,57	12260,69
572,66	12442,61
572,74	12544,30
572,83	12598,54
572,92	12690,06
573,00	12765,77
573,09	12825,65
573,18	12893,45
573,27	13128,47
573,35	13166,89
573,44	12958,98
573,53	12966,89
573,61	12911,52
573,70	12891,19
573,79	12774,81
573,87	12852,77
573,96	12478,77
574,05	12379,34
574,14	12312,67
574,22	12213,24
574,31	12040,36
574,40	11920,59
574,48	11948,84
574,57	11866,35
574,66	11946,58
574,74	11907,03
574,83	11979,35
574,92	12065,22
575,00	12093,47
575,09	12067,48
575,18	12183,86
575,26	12345,44
575,35	12290,07
575,43	12135,27
575,52	12378,21
575,61	12421,14
575,69	12631,31
575,78	12583,85
575,87	12765,77
575,95	12962,37
576,04	12806,44
576,13	13142,03
576,21	13087,79
576,30	13078,75
576,38	12965,76
576,47	13065,19
576,56	13351,06
576,64	13348,80
576,73	13279,88
576,82	13526,20
576,90	13583,82
576,99	13459,53
577,07	13274,23
577,16	13172,54
577,25	13129,60
577,33	12964,63
577,42	12638,09
577,50	12446,00
577,59	12505,89
577,68	12293,46
577,76	12123,97
577,85	12061,83
577,93	12048,27
578,02	12081,04
578,10	12111,55
578,19	12310,41
578,28	12216,63
578,36	12336,40
578,45	12191,77
578,53	12116,07
578,62	12386,12
578,70	12500,24
578,79	12518,31
578,88	12659,55
578,96	12674,24
579,05	12887,80
579,13	12980,45
579,22	12965,76
579,30	13168,02
579,39	13160,11
579,47	13331,85
579,56	13240,33
579,64	13441,45
579,73	13436,93
579,82	13632,41
579,90	13658,40
579,99	13910,37
580,07	13926,19
580,16	13910,37
580,24	13936,36
580,33	13844,83
580,41	13754,44
580,50	13603,03
580,58	13549,93
580,67	13369,14
580,75	13319,42
580,84	12825,65
580,92	13032,43
581,01	12757,86
581,09	12447,13
581,18	12401,93
581,26	12447,13
581,35	12250,53
581,43	12320,58
581,52	12327,36
581,60	12403,06
581,69	12321,71
581,77	12377,08
581,86	12483,29
581,94	12517,19
582,02	12735,26
582,11	12786,10
582,19	12882,15
582,28	13206,43
582,36	13204,17
582,45	13375,92
582,53	13457,27
582,62	13335,24
582,70	13604,16
582,79	13571,39
582,87	13543,15
582,96	13604,16
583,04	13827,88
583,12	13946,53
583,21	13813,20
583,29	13861,78
583,38	14074,21
583,46	13980,42
583,55	13847,09
583,63	14214,32
583,71	14357,81
583,80	14217,71
583,88	13997,37
583,97	14354,42
584,05	14188,33
584,13	14062,91
584,22	14129,57
584,30	13575,91
584,39	13445,97
584,47	13137,51
584,55	13083,27
584,64	12739,78
584,72	12748,82
584,81	12631,31
584,89	12734,13
584,97	12805,31
585,06	12751,08
585,14	12730,74
585,23	12700,23
585,31	12869,72
585,39	12910,40
585,48	13139,77
585,56	13271,97
585,64	13274,23
585,73	13726,19
585,81	13401,91
585,90	13749,92
585,98	13630,15
586,06	13723,93
586,15	13909,24
586,23	13815,46
586,31	13974,77
586,40	13877,60
586,48	14034,66
586,56	13925,06
586,65	14004,15
586,73	14279,85
586,81	14153,30
586,90	14256,12
586,98	14285,50
587,06	14329,57
587,15	14353,29
587,23	14487,75
587,31	14653,85
587,40	14574,76
587,48	14670,80
587,56	14562,33
587,65	14517,13
587,73	14375,89
587,81	14055,00
587,90	13805,29
587,98	13505,86
588,06	13356,71
588,14	12867,46
588,23	12786,10
588,31	12856,16
588,39	12641,48
588,48	12749,95
588,56	12631,31
588,64	12747,69
588,72	12844,86
588,81	13056,15
588,89	13251,63
588,97	13418,86
589,06	13401,91
589,14	13674,22
589,22	13717,15
589,30	13657,27
589,39	13864,04
589,47	13883,25
589,55	14110,36
589,63	14118,27
589,72	14025,62
589,80	13938,62
589,88	14190,59
589,96	14431,26
590,05	14229,00
590,13	14531,82
590,21	14471,94
590,29	14396,23
590,38	14635,77
590,46	14588,32
590,54	14796,22
590,62	14761,19
590,71	14734,08
590,79	14744,25
590,87	14992,83
590,95	14734,08
591,03	14867,41
591,12	14910,34
591,20	14995,09
591,28	15016,55
591,36	14634,64
591,44	14412,05
591,53	14270,81
591,61	14174,77
591,69	13899,07
591,77	13905,85
591,85	13394,00
591,94	13365,75
592,02	13290,05
592,10	13399,65
592,18	13397,39
592,26	13656,14
592,34	13561,23
592,43	13578,17
592,51	13774,78
592,59	13818,85
592,67	13917,15
592,75	14118,27
592,84	14060,65
592,92	14261,77
593,00	14084,38
593,08	14312,62
593,16	14172,51
593,24	14417,70
593,32	14668,54
593,41	14499,05
593,49	14622,21
593,57	14560,07
593,65	14763,45
593,73	15106,95
593,81	14958,93
593,89	14853,85
593,98	15093,39
594,06	14873,06
594,14	15006,39
594,22	15109,21
594,30	15201,86
594,38	15190,56
594,46	15371,35
594,54	15371,35
594,62	15074,18
594,71	15332,93
594,79	15541,96
594,87	15160,05
594,95	15381,52
595,03	15155,53
595,11	14982,66
595,19	14848,20
595,27	14622,21
595,35	14381,54
595,43	14036,92
595,52	13747,66
595,60	13504,73
595,68	13486,65
595,76	13327,33
595,84	13459,53
595,92	13464,05
596,00	13549,93
596,08	13690,04
596,16	13883,25
596,24	13967,99
596,32	14042,57
596,40	14021,10
596,48	14134,09
596,56	14423,35
596,64	14399,62
596,73	14436,91
596,81	14466,29
596,89	14549,90
596,97	14699,05
597,05	14686,62
597,13	14821,08
597,21	14673,06
597,29	14797,35
597,37	15117,12
597,45	14853,85
597,53	14991,70
597,61	14981,53
597,69	15139,71
597,77	15130,68
597,85	15238,02
597,93	15231,24
598,01	15304,68
598,09	15283,21
598,17	15428,97
598,25	15451,57
598,33	15458,35
598,41	15479,82
598,49	15502,42
598,57	15609,76
598,65	15531,80
598,73	15487,73
598,81	15451,57
598,89	15241,41
598,97	15154,40
599,05	15179,26
599,13	14753,28
599,21	14352,16
599,29	14125,05
599,37	14022,23
599,45	14074,21
599,53	13712,63
599,61	13692,30
599,69	13873,08
599,77	13787,21
599,85	13857,26
599,93	14229,00
600,00	14162,34
600,08	14135,22
600,16	14254,99
600,24	14388,32
600,32	14558,94
600,40	14589,45
600,48	14853,85
600,56	14697,92
600,64	14960,06
600,72	15062,88
600,80	14778,14
600,88	14965,71
600,96	14996,22
601,04	15126,16
601,12	15082,09
601,19	15114,86
601,27	15057,23
601,35	15517,11
601,43	15239,15
601,51	15404,11
601,59	15302,42
601,67	15431,23
601,75	15495,64
601,83	15535,18
601,91	15441,40
601,98	15752,13
602,06	15686,59
602,14	15699,02
602,22	15758,91
602,30	15883,20
602,38	15776,99
602,46	15715,97
602,54	15827,83
602,61	15756,65
602,69	15741,96
602,77	15388,30
602,85	15521,63
602,93	15206,38
603,01	14816,56
603,09	14678,71
603,17	14485,49
603,24	14622,21
603,32	14231,26
603,40	14294,54
603,48	14299,06
603,56	14053,87
603,64	14161,21
603,71	14280,98
603,79	14460,64
603,87	14679,84
603,95	14714,87
604,03	14688,88
604,11	14804,13
604,18	14835,77
604,26	14825,60
604,34	14850,46
604,42	14973,62
604,50	14904,69
604,57	15100,17
604,65	15030,11
604,73	15283,21
604,81	15327,28
604,89	15122,77
604,96	15558,91
605,04	15295,64
605,12	15462,87
605,20	15431,23
605,28	15715,97
605,35	15624,45
605,43	15751,00
605,51	15808,62
605,59	15680,94
605,67	15749,87
605,74	15886,59
605,82	15876,42
605,90	15893,37
605,98	15963,42
606,05	15941,95
606,13	15917,10
606,21	15712,58
606,29	15973,59
606,36	16030,09
606,44	16059,46
606,52	15980,37
606,60	15841,39
606,67	15710,32
606,75	15480,95
606,83	15288,86
606,91	15432,36
606,98	15235,76
607,06	14895,65
607,14	14749,89
607,22	14439,17
607,29	14609,79
607,37	14497,92
607,45	14579,28
607,52	14578,15
607,60	14536,34
607,68	14545,38
607,76	14665,15
607,83	14744,25
607,91	14951,02
607,99	14860,63
608,06	14946,50
608,14	14743,12
608,22	14966,84
608,30	15111,47
608,37	15153,27
608,45	15103,56
608,53	15157,79
608,60	15165,70
608,68	15344,23
608,76	15325,02
608,83	15473,04
608,91	15418,80
608,99	15575,86
609,06	15615,41
609,14	15638,01
609,22	15598,46
609,29	15709,19
609,37	15676,42
609,45	15705,80
609,52	15729,53
609,60	15552,13
609,68	15800,71
609,75	15701,28
609,83	15745,35
609,91	15711,45
609,98	15652,70
610,06	15895,63
610,13	15866,25
610,21	15964,55
610,29	15779,25
610,36	15876,42
610,44	15949,86
610,52	15722,75
610,59	15833,48
610,67	15434,62
610,74	15426,71
610,82	15245,93
610,90	15190,56
610,97	14895,65
611,05	14870,80
611,13	14758,93
611,20	14693,40
611,28	14526,17
611,35	14729,56
611,43	14343,13
611,51	14506,96
611,58	14557,81
611,66	14531,82
611,73	14468,55
611,81	14868,54
611,88	14666,28
611,96	14850,46
612,04	14888,87
612,11	14723,91
612,19	14931,81
612,26	14895,65
612,34	15008,64
612,41	15108,08
612,49	15102,43
612,57	14936,33
612,64	15091,13
612,72	15034,63
612,79	15021,07
612,87	14866,28
612,94	14996,22
613,02	15109,21
613,09	15275,30
613,17	15221,07
613,24	15101,30
613,32	15249,32
613,40	14963,45
613,47	15057,23
613,55	15061,75
613,62	15201,86
613,70	15104,69
613,77	15139,71
613,85	15288,86
613,92	15104,69
614,00	15269,65
614,07	15175,87
614,15	15127,29
614,22	14997,35
614,30	15117,12
614,37	15061,75
614,45	14895,65
614,52	14800,74
614,60	14847,07
614,67	14821,08
614,75	14610,92
614,82	14649,33
614,90	14451,60
614,97	14331,83
615,05	14218,84
615,12	13951,05
615,20	14004,15
615,27	13906,98
615,34	13819,98
615,42	13753,31
615,49	13903,59
615,57	13613,20
615,64	13564,62
615,72	13693,43
615,79	13723,93
615,87	13706,98
615,94	13624,50
616,02	13746,53
616,09	13562,36
616,16	13660,66
616,24	13633,54
616,31	13644,84
616,39	13769,13
616,46	13706,98
616,54	13885,51
616,61	13810,94
616,68	13557,84
616,76	13508,12
616,83	13509,25
616,91	13511,51
616,98	13401,91
617,06	13373,66
617,13	13504,73
617,20	13467,44
617,28	13357,84
617,35	13173,66
617,43	13268,58
617,50	13189,48
617,57	13086,66
>>>>>End Processed Spectral Data<<<<<
